# B0, Bcntr =   -5.655       -5.574    
# Itor [A], R0, Rctr, a, nr =   0.1000E+07    68.23        67.32        21.50              501
# Phi_pol, Psi_tor max, q95 =   -1.284      -0.1035        4.338    
# beta_Ax%, beta_ave_geo%, betaN_Troy%, betaN_geo%, Vol =    1.872       0.6149       0.6463       0.7366       0.8728    
#T 1.r/a   2.Phi_Tor  3.Psi_pol  4.q-prof   5.s-hat    6.beta  7.Pres[Dy/cm^2] 8.Pprime   9.<j*B>    10.Volume  
   0.000        0.000        0.000        1.092        0.000       0.1872E-01   0.2314E+07    0.000      -0.7065E+08    0.000    
  0.5032E-01   0.2000E-02   0.3632E-02    1.082      -0.1124E-01   0.1857E-01   0.2296E+07   -1.010      -0.7123E+08   0.1947E-02
  0.7128E-01   0.4000E-02   0.7294E-02    1.074      -0.2256E-01   0.1843E-01   0.2279E+07   -1.898      -0.7182E+08   0.1946E-02
  0.8742E-01   0.6000E-02   0.1098E-01    1.069      -0.2261E-01   0.1830E-01   0.2262E+07   -2.332      -0.7212E+08   0.1946E-02
  0.1010       0.8000E-02   0.1467E-01    1.066      -0.2108E-01   0.1816E-01   0.2245E+07   -2.699      -0.7234E+08   0.1945E-02
  0.1131       0.1000E-01   0.1838E-01    1.064      -0.1941E-01   0.1803E-01   0.2228E+07   -3.011      -0.7250E+08   0.1945E-02
  0.1239       0.1200E-01   0.2210E-01    1.062      -0.1789E-01   0.1789E-01   0.2212E+07   -3.295      -0.7263E+08   0.1945E-02
  0.1339       0.1400E-01   0.2582E-01    1.061      -0.1665E-01   0.1776E-01   0.2196E+07   -3.569      -0.7275E+08   0.1944E-02
  0.1432       0.1600E-01   0.2954E-01    1.059      -0.1555E-01   0.1763E-01   0.2179E+07   -3.825      -0.7284E+08   0.1944E-02
  0.1519       0.1800E-01   0.3327E-01    1.059      -0.1453E-01   0.1750E-01   0.2163E+07   -4.065      -0.7293E+08   0.1944E-02
  0.1601       0.2000E-01   0.3700E-01    1.058      -0.1362E-01   0.1737E-01   0.2147E+07   -4.297      -0.7300E+08   0.1943E-02
  0.1679       0.2200E-01   0.4073E-01    1.057      -0.1279E-01   0.1724E-01   0.2131E+07   -4.523      -0.7307E+08   0.1943E-02
  0.1754       0.2400E-01   0.4447E-01    1.057      -0.1194E-01   0.1711E-01   0.2116E+07   -4.739      -0.7313E+08   0.1943E-02
  0.1826       0.2600E-01   0.4821E-01    1.056      -0.1100E-01   0.1699E-01   0.2100E+07   -4.944      -0.7318E+08   0.1942E-02
  0.1895       0.2800E-01   0.5195E-01    1.056      -0.9949E-02   0.1686E-01   0.2084E+07   -5.138      -0.7321E+08   0.1942E-02
  0.1961       0.3000E-01   0.5569E-01    1.055      -0.8789E-02   0.1673E-01   0.2069E+07   -5.322      -0.7324E+08   0.1941E-02
  0.2026       0.3200E-01   0.5943E-01    1.055      -0.7554E-02   0.1661E-01   0.2053E+07   -5.501      -0.7326E+08   0.1941E-02
  0.2088       0.3400E-01   0.6317E-01    1.055      -0.6292E-02   0.1649E-01   0.2038E+07   -5.680      -0.7327E+08   0.1941E-02
  0.2149       0.3600E-01   0.6691E-01    1.055      -0.4991E-02   0.1636E-01   0.2023E+07   -5.860      -0.7328E+08   0.1940E-02
  0.2208       0.3800E-01   0.7066E-01    1.054      -0.3589E-02   0.1624E-01   0.2007E+07   -6.038      -0.7329E+08   0.1940E-02
  0.2265       0.4000E-01   0.7440E-01    1.054      -0.2051E-02   0.1612E-01   0.1992E+07   -6.213      -0.7328E+08   0.1940E-02
  0.2321       0.4200E-01   0.7815E-01    1.054      -0.3597E-03   0.1600E-01   0.1977E+07   -6.385      -0.7327E+08   0.1939E-02
  0.2376       0.4400E-01   0.8189E-01    1.054       0.1512E-02   0.1587E-01   0.1962E+07   -6.552      -0.7325E+08   0.1939E-02
  0.2429       0.4600E-01   0.8563E-01    1.054       0.3579E-02   0.1575E-01   0.1947E+07   -6.716      -0.7321E+08   0.1939E-02
  0.2481       0.4800E-01   0.8938E-01    1.055       0.5847E-02   0.1563E-01   0.1933E+07   -6.876      -0.7317E+08   0.1938E-02
  0.2532       0.5000E-01   0.9312E-01    1.055       0.8325E-02   0.1551E-01   0.1918E+07   -7.033      -0.7312E+08   0.1938E-02
  0.2582       0.5200E-01   0.9686E-01    1.055       0.1104E-01   0.1540E-01   0.1903E+07   -7.187      -0.7305E+08   0.1938E-02
  0.2632       0.5400E-01   0.1006        1.055       0.1401E-01   0.1528E-01   0.1889E+07   -7.338      -0.7298E+08   0.1937E-02
  0.2680       0.5600E-01   0.1043        1.055       0.1724E-01   0.1516E-01   0.1874E+07   -7.487      -0.7289E+08   0.1937E-02
  0.2727       0.5800E-01   0.1081        1.056       0.2077E-01   0.1505E-01   0.1860E+07   -7.632      -0.7278E+08   0.1937E-02
  0.2774       0.6000E-01   0.1118        1.056       0.2461E-01   0.1493E-01   0.1845E+07   -7.775      -0.7266E+08   0.1936E-02
  0.2820       0.6200E-01   0.1156        1.057       0.2879E-01   0.1481E-01   0.1831E+07   -7.915      -0.7253E+08   0.1936E-02
  0.2865       0.6400E-01   0.1193        1.057       0.3330E-01   0.1470E-01   0.1817E+07   -8.052      -0.7238E+08   0.1936E-02
  0.2909       0.6600E-01   0.1230        1.058       0.3817E-01   0.1459E-01   0.1803E+07   -8.188      -0.7222E+08   0.1935E-02
  0.2953       0.6800E-01   0.1268        1.058       0.4340E-01   0.1447E-01   0.1789E+07   -8.325      -0.7203E+08   0.1935E-02
  0.2996       0.7000E-01   0.1305        1.059       0.4902E-01   0.1436E-01   0.1775E+07   -8.461      -0.7183E+08   0.1935E-02
  0.3038       0.7200E-01   0.1342        1.060       0.5505E-01   0.1425E-01   0.1762E+07   -8.595      -0.7162E+08   0.1934E-02
  0.3080       0.7400E-01   0.1379        1.061       0.6152E-01   0.1414E-01   0.1748E+07   -8.728      -0.7138E+08   0.1934E-02
  0.3121       0.7600E-01   0.1417        1.062       0.6846E-01   0.1403E-01   0.1734E+07   -8.858      -0.7112E+08   0.1934E-02
  0.3162       0.7800E-01   0.1454        1.063       0.7586E-01   0.1392E-01   0.1721E+07   -8.987      -0.7084E+08   0.1933E-02
  0.3202       0.8000E-01   0.1491        1.064       0.8374E-01   0.1381E-01   0.1707E+07   -9.113      -0.7054E+08   0.1933E-02
  0.3242       0.8200E-01   0.1528        1.065       0.9209E-01   0.1371E-01   0.1694E+07   -9.238      -0.7022E+08   0.1933E-02
  0.3281       0.8400E-01   0.1565        1.066       0.1009       0.1360E-01   0.1681E+07   -9.360      -0.6988E+08   0.1932E-02
  0.3320       0.8600E-01   0.1602        1.067       0.1102       0.1349E-01   0.1668E+07   -9.481      -0.6952E+08   0.1932E-02
  0.3358       0.8800E-01   0.1639        1.069       0.1200       0.1339E-01   0.1655E+07   -9.599      -0.6914E+08   0.1932E-02
  0.3396       0.9000E-01   0.1676        1.070       0.1302       0.1328E-01   0.1642E+07   -9.716      -0.6873E+08   0.1931E-02
  0.3433       0.9200E-01   0.1713        1.072       0.1409       0.1318E-01   0.1629E+07   -9.830      -0.6831E+08   0.1931E-02
  0.3470       0.9400E-01   0.1750        1.074       0.1520       0.1308E-01   0.1616E+07   -9.942      -0.6787E+08   0.1931E-02
  0.3507       0.9600E-01   0.1786        1.075       0.1635       0.1297E-01   0.1604E+07   -10.05      -0.6741E+08   0.1930E-02
  0.3543       0.9800E-01   0.1823        1.077       0.1754       0.1287E-01   0.1591E+07   -10.16      -0.6694E+08   0.1930E-02
  0.3579       0.1000       0.1860        1.079       0.1877       0.1277E-01   0.1579E+07   -10.27      -0.6645E+08   0.1929E-02
  0.3614       0.1020       0.1896        1.081       0.2003       0.1267E-01   0.1566E+07   -10.37      -0.6594E+08   0.1929E-02
  0.3649       0.1040       0.1933        1.083       0.2132       0.1257E-01   0.1554E+07   -10.47      -0.6542E+08   0.1929E-02
  0.3684       0.1060       0.1969        1.086       0.2154       0.1247E-01   0.1542E+07   -10.06      -0.6489E+08   0.1928E-02
  0.3722       0.1080       0.2005        1.088       0.2281       0.1238E-01   0.1530E+07   -10.14      -0.6435E+08   0.1928E-02
  0.3756       0.1100       0.2042        1.090       0.2532       0.1228E-01   0.1518E+07   -10.75      -0.6380E+08   0.1927E-02
  0.3790       0.1120       0.2078        1.093       0.2669       0.1218E-01   0.1506E+07   -10.84      -0.6324E+08   0.1927E-02
  0.3823       0.1140       0.2114        1.096       0.2809       0.1209E-01   0.1494E+07   -10.93      -0.6267E+08   0.1927E-02
  0.3856       0.1160       0.2150        1.098       0.2950       0.1199E-01   0.1483E+07   -11.02      -0.6210E+08   0.1926E-02
  0.3889       0.1180       0.2186        1.101       0.3092       0.1190E-01   0.1471E+07   -11.11      -0.6152E+08   0.1926E-02
  0.3922       0.1200       0.2222        1.104       0.3234       0.1181E-01   0.1460E+07   -11.19      -0.6095E+08   0.1925E-02
  0.3954       0.1220       0.2257        1.107       0.3376       0.1172E-01   0.1448E+07   -11.28      -0.6037E+08   0.1925E-02
  0.3986       0.1240       0.2293        1.110       0.3519       0.1162E-01   0.1437E+07   -11.36      -0.5978E+08   0.1924E-02
  0.4018       0.1260       0.2328        1.113       0.3662       0.1153E-01   0.1426E+07   -11.44      -0.5920E+08   0.1924E-02
  0.4049       0.1280       0.2364        1.117       0.3804       0.1145E-01   0.1415E+07   -11.51      -0.5862E+08   0.1923E-02
  0.4080       0.1300       0.2399        1.120       0.3946       0.1136E-01   0.1404E+07   -11.59      -0.5804E+08   0.1923E-02
  0.4111       0.1320       0.2434        1.123       0.4088       0.1127E-01   0.1393E+07   -11.66      -0.5747E+08   0.1922E-02
  0.4142       0.1340       0.2469        1.127       0.4229       0.1118E-01   0.1382E+07   -11.73      -0.5689E+08   0.1922E-02
  0.4172       0.1360       0.2504        1.130       0.4369       0.1110E-01   0.1372E+07   -11.81      -0.5632E+08   0.1921E-02
  0.4202       0.1380       0.2539        1.134       0.4508       0.1101E-01   0.1361E+07   -11.88      -0.5575E+08   0.1921E-02
  0.4232       0.1400       0.2574        1.138       0.4647       0.1093E-01   0.1351E+07   -11.95      -0.5519E+08   0.1920E-02
  0.4262       0.1420       0.2609        1.141       0.4785       0.1084E-01   0.1341E+07   -12.01      -0.5463E+08   0.1920E-02
  0.4292       0.1440       0.2643        1.145       0.4921       0.1076E-01   0.1330E+07   -12.08      -0.5408E+08   0.1919E-02
  0.4321       0.1460       0.2678        1.149       0.5057       0.1068E-01   0.1320E+07   -12.14      -0.5353E+08   0.1919E-02
  0.4350       0.1480       0.2712        1.153       0.5191       0.1060E-01   0.1310E+07   -12.20      -0.5299E+08   0.1918E-02
  0.4379       0.1500       0.2746        1.157       0.5325       0.1052E-01   0.1300E+07   -12.27      -0.5246E+08   0.1918E-02
  0.4407       0.1520       0.2780        1.161       0.5457       0.1044E-01   0.1291E+07   -12.32      -0.5192E+08   0.1917E-02
  0.4436       0.1540       0.2814        1.165       0.5588       0.1036E-01   0.1281E+07   -12.38      -0.5140E+08   0.1916E-02
  0.4464       0.1560       0.2848        1.170       0.5717       0.1028E-01   0.1271E+07   -12.44      -0.5088E+08   0.1916E-02
  0.4492       0.1580       0.2882        1.174       0.5846       0.1021E-01   0.1262E+07   -12.49      -0.5037E+08   0.1915E-02
  0.4520       0.1600       0.2915        1.178       0.5973       0.1013E-01   0.1252E+07   -12.55      -0.4986E+08   0.1915E-02
  0.4548       0.1620       0.2949        1.182       0.6099       0.1006E-01   0.1243E+07   -12.60      -0.4936E+08   0.1914E-02
  0.4575       0.1640       0.2982        1.187       0.6224       0.9980E-02   0.1234E+07   -12.65      -0.4887E+08   0.1914E-02
  0.4602       0.1660       0.3015        1.191       0.6348       0.9907E-02   0.1225E+07   -12.70      -0.4838E+08   0.1913E-02
  0.4629       0.1680       0.3048        1.196       0.6470       0.9833E-02   0.1216E+07   -12.75      -0.4790E+08   0.1912E-02
  0.4656       0.1700       0.3081        1.200       0.6591       0.9761E-02   0.1207E+07   -12.80      -0.4743E+08   0.1912E-02
  0.4683       0.1720       0.3114        1.205       0.6711       0.9689E-02   0.1198E+07   -12.84      -0.4696E+08   0.1911E-02
  0.4710       0.1740       0.3147        1.209       0.6830       0.9619E-02   0.1189E+07   -12.88      -0.4650E+08   0.1910E-02
  0.4736       0.1760       0.3179        1.214       0.6948       0.9548E-02   0.1180E+07   -12.93      -0.4604E+08   0.1910E-02
  0.4762       0.1780       0.3212        1.219       0.7064       0.9479E-02   0.1172E+07   -12.97      -0.4559E+08   0.1909E-02
  0.4788       0.1800       0.3244        1.224       0.7180       0.9410E-02   0.1163E+07   -13.01      -0.4515E+08   0.1908E-02
  0.4814       0.1820       0.3276        1.228       0.7294       0.9342E-02   0.1155E+07   -13.05      -0.4471E+08   0.1908E-02
  0.4840       0.1840       0.3308        1.233       0.7407       0.9275E-02   0.1147E+07   -13.09      -0.4428E+08   0.1907E-02
  0.4865       0.1860       0.3340        1.238       0.7520       0.9208E-02   0.1138E+07   -13.12      -0.4386E+08   0.1906E-02
  0.4891       0.1880       0.3372        1.243       0.7631       0.9143E-02   0.1130E+07   -13.16      -0.4344E+08   0.1906E-02
  0.4916       0.1900       0.3404        1.248       0.7741       0.9077E-02   0.1122E+07   -13.19      -0.4303E+08   0.1905E-02
  0.4941       0.1920       0.3435        1.253       0.7850       0.9013E-02   0.1114E+07   -13.23      -0.4262E+08   0.1904E-02
  0.4966       0.1940       0.3467        1.258       0.7958       0.8949E-02   0.1106E+07   -13.26      -0.4222E+08   0.1904E-02
  0.4991       0.1960       0.3498        1.263       0.8065       0.8886E-02   0.1098E+07   -13.29      -0.4182E+08   0.1903E-02
  0.5016       0.1980       0.3529        1.268       0.8172       0.8823E-02   0.1091E+07   -13.32      -0.4143E+08   0.1902E-02
  0.5040       0.2000       0.3560        1.273       0.8277       0.8762E-02   0.1083E+07   -13.35      -0.4105E+08   0.1902E-02
  0.5065       0.2020       0.3591        1.278       0.8382       0.8701E-02   0.1075E+07   -13.38      -0.4067E+08   0.1901E-02
  0.5089       0.2040       0.3622        1.283       0.8485       0.8640E-02   0.1068E+07   -13.41      -0.4030E+08   0.1900E-02
  0.5113       0.2060       0.3653        1.288       0.8588       0.8580E-02   0.1061E+07   -13.43      -0.3993E+08   0.1900E-02
  0.5137       0.2080       0.3684        1.294       0.8690       0.8521E-02   0.1053E+07   -13.46      -0.3957E+08   0.1899E-02
  0.5161       0.2100       0.3714        1.299       0.8791       0.8462E-02   0.1046E+07   -13.48      -0.3921E+08   0.1898E-02
  0.5184       0.2120       0.3744        1.304       0.8891       0.8404E-02   0.1039E+07   -13.51      -0.3885E+08   0.1897E-02
  0.5208       0.2140       0.3775        1.309       0.8991       0.8347E-02   0.1032E+07   -13.53      -0.3851E+08   0.1897E-02
  0.5231       0.2160       0.3805        1.315       0.9089       0.8290E-02   0.1025E+07   -13.55      -0.3816E+08   0.1896E-02
  0.5255       0.2180       0.3835        1.320       0.9187       0.8234E-02   0.1018E+07   -13.57      -0.3782E+08   0.1895E-02
  0.5278       0.2200       0.3864        1.326       0.9285       0.8179E-02   0.1011E+07   -13.59      -0.3749E+08   0.1894E-02
  0.5301       0.2220       0.3894        1.331       0.9382       0.8124E-02   0.1004E+07   -13.61      -0.3716E+08   0.1894E-02
  0.5324       0.2240       0.3924        1.336       0.9478       0.8069E-02   0.9975E+06   -13.63      -0.3684E+08   0.1893E-02
  0.5346       0.2260       0.3953        1.342       0.9573       0.8016E-02   0.9908E+06   -13.64      -0.3652E+08   0.1892E-02
  0.5369       0.2280       0.3983        1.347       0.9667       0.7962E-02   0.9843E+06   -13.66      -0.3620E+08   0.1891E-02
  0.5392       0.2300       0.4012        1.353       0.9761       0.7910E-02   0.9778E+06   -13.68      -0.3589E+08   0.1891E-02
  0.5414       0.2320       0.4041        1.358       0.9854       0.7858E-02   0.9713E+06   -13.69      -0.3558E+08   0.1890E-02
  0.5436       0.2340       0.4070        1.364       0.9947       0.7806E-02   0.9650E+06   -13.70      -0.3528E+08   0.1889E-02
  0.5459       0.2360       0.4099        1.369        1.004       0.7755E-02   0.9587E+06   -13.72      -0.3498E+08   0.1888E-02
  0.5481       0.2380       0.4128        1.375        1.013       0.7705E-02   0.9524E+06   -13.73      -0.3468E+08   0.1887E-02
  0.5503       0.2400       0.4156        1.381        1.022       0.7655E-02   0.9463E+06   -13.74      -0.3439E+08   0.1887E-02
  0.5525       0.2420       0.4185        1.386        1.031       0.7606E-02   0.9402E+06   -13.75      -0.3411E+08   0.1886E-02
  0.5546       0.2440       0.4213        1.392        1.040       0.7557E-02   0.9341E+06   -13.76      -0.3382E+08   0.1885E-02
  0.5568       0.2460       0.4242        1.398        1.049       0.7509E-02   0.9282E+06   -13.77      -0.3354E+08   0.1884E-02
  0.5590       0.2480       0.4270        1.403        1.058       0.7461E-02   0.9223E+06   -13.78      -0.3327E+08   0.1883E-02
  0.5611       0.2500       0.4298        1.409        1.067       0.7414E-02   0.9164E+06   -13.79      -0.3300E+08   0.1883E-02
  0.5632       0.2520       0.4326        1.415        1.075       0.7367E-02   0.9106E+06   -13.79      -0.3273E+08   0.1882E-02
  0.5654       0.2540       0.4354        1.421        1.084       0.7321E-02   0.9049E+06   -13.80      -0.3246E+08   0.1881E-02
  0.5675       0.2560       0.4381        1.426       0.9747       0.7275E-02   0.8993E+06   -12.31      -0.3220E+08   0.1880E-02
  0.5701       0.2580       0.4409        1.432       0.9819       0.7230E-02   0.8937E+06   -12.30      -0.3194E+08   0.1879E-02
  0.5722       0.2600       0.4436        1.438        1.109       0.7185E-02   0.8881E+06   -13.79      -0.3169E+08   0.1879E-02
  0.5743       0.2620       0.4464        1.444        1.117       0.7140E-02   0.8827E+06   -13.79      -0.3144E+08   0.1878E-02
  0.5764       0.2640       0.4491        1.450        1.126       0.7097E-02   0.8772E+06   -13.80      -0.3119E+08   0.1877E-02
  0.5784       0.2660       0.4518        1.455        1.134       0.7053E-02   0.8719E+06   -13.80      -0.3095E+08   0.1876E-02
  0.5805       0.2680       0.4545        1.461        1.143       0.7010E-02   0.8666E+06   -13.80      -0.3071E+08   0.1875E-02
  0.5825       0.2700       0.4572        1.467        1.151       0.6968E-02   0.8613E+06   -13.81      -0.3047E+08   0.1874E-02
  0.5846       0.2720       0.4599        1.473        1.159       0.6926E-02   0.8561E+06   -13.81      -0.3023E+08   0.1874E-02
  0.5866       0.2740       0.4626        1.479        1.168       0.6884E-02   0.8510E+06   -13.81      -0.3000E+08   0.1873E-02
  0.5886       0.2760       0.4653        1.485        1.176       0.6843E-02   0.8459E+06   -13.81      -0.2977E+08   0.1872E-02
  0.5906       0.2780       0.4679        1.491        1.184       0.6802E-02   0.8408E+06   -13.81      -0.2955E+08   0.1871E-02
  0.5926       0.2800       0.4706        1.497        1.192       0.6762E-02   0.8359E+06   -13.81      -0.2933E+08   0.1870E-02
  0.5946       0.2820       0.4732        1.503        1.200       0.6722E-02   0.8309E+06   -13.81      -0.2911E+08   0.1869E-02
  0.5966       0.2840       0.4758        1.509        1.208       0.6683E-02   0.8261E+06   -13.81      -0.2889E+08   0.1868E-02
  0.5986       0.2860       0.4784        1.515        1.216       0.6644E-02   0.8212E+06   -13.81      -0.2867E+08   0.1868E-02
  0.6005       0.2880       0.4810        1.521        1.224       0.6605E-02   0.8165E+06   -13.80      -0.2846E+08   0.1867E-02
  0.6025       0.2900       0.4836        1.527        1.232       0.6567E-02   0.8117E+06   -13.80      -0.2825E+08   0.1866E-02
  0.6044       0.2920       0.4862        1.534        1.240       0.6529E-02   0.8070E+06   -13.80      -0.2805E+08   0.1865E-02
  0.6064       0.2940       0.4888        1.540        1.248       0.6491E-02   0.8024E+06   -13.79      -0.2784E+08   0.1864E-02
  0.6083       0.2960       0.4913        1.546        1.256       0.6454E-02   0.7978E+06   -13.79      -0.2764E+08   0.1863E-02
  0.6102       0.2980       0.4939        1.552        1.264       0.6418E-02   0.7933E+06   -13.78      -0.2744E+08   0.1862E-02
  0.6122       0.3000       0.4964        1.558        1.272       0.6381E-02   0.7888E+06   -13.78      -0.2725E+08   0.1862E-02
  0.6141       0.3020       0.4989        1.564        1.280       0.6345E-02   0.7844E+06   -13.77      -0.2705E+08   0.1861E-02
  0.6160       0.3040       0.5015        1.571        1.288       0.6310E-02   0.7800E+06   -13.77      -0.2686E+08   0.1860E-02
  0.6179       0.3060       0.5040        1.577        1.295       0.6275E-02   0.7756E+06   -13.76      -0.2667E+08   0.1859E-02
  0.6197       0.3080       0.5065        1.583        1.303       0.6240E-02   0.7713E+06   -13.75      -0.2649E+08   0.1858E-02
  0.6216       0.3100       0.5090        1.589        1.311       0.6205E-02   0.7670E+06   -13.75      -0.2630E+08   0.1857E-02
  0.6235       0.3120       0.5114        1.596        1.319       0.6171E-02   0.7628E+06   -13.74      -0.2612E+08   0.1856E-02
  0.6253       0.3140       0.5139        1.602        1.326       0.6137E-02   0.7587E+06   -13.73      -0.2594E+08   0.1855E-02
  0.6272       0.3160       0.5164        1.608        1.334       0.6104E-02   0.7545E+06   -13.72      -0.2576E+08   0.1854E-02
  0.6290       0.3180       0.5188        1.615        1.342       0.6071E-02   0.7504E+06   -13.71      -0.2559E+08   0.1854E-02
  0.6309       0.3200       0.5212        1.621        1.608       0.6038E-02   0.7464E+06   -16.32      -0.2541E+08   0.1853E-02
  0.6321       0.3220       0.5237        1.627        1.617       0.6006E-02   0.7424E+06   -16.33      -0.2524E+08   0.1852E-02
  0.6339       0.3240       0.5261        1.634        1.364       0.5974E-02   0.7384E+06   -13.68      -0.2506E+08   0.1851E-02
  0.6357       0.3260       0.5285        1.640        1.372       0.5942E-02   0.7345E+06   -13.67      -0.2490E+08   0.1850E-02
  0.6375       0.3280       0.5309        1.646        1.379       0.5910E-02   0.7306E+06   -13.66      -0.2473E+08   0.1849E-02
  0.6393       0.3300       0.5333        1.653        1.387       0.5879E-02   0.7268E+06   -13.65      -0.2457E+08   0.1848E-02
  0.6411       0.3320       0.5357        1.659        1.394       0.5849E-02   0.7230E+06   -13.63      -0.2441E+08   0.1847E-02
  0.6429       0.3340       0.5381        1.666        1.402       0.5818E-02   0.7192E+06   -13.62      -0.2425E+08   0.1846E-02
  0.6447       0.3360       0.5404        1.672        1.410       0.5788E-02   0.7155E+06   -13.60      -0.2409E+08   0.1845E-02
  0.6465       0.3380       0.5428        1.679        1.417       0.5758E-02   0.7118E+06   -13.58      -0.2393E+08   0.1844E-02
  0.6482       0.3400       0.5451        1.685        1.425       0.5729E-02   0.7081E+06   -13.57      -0.2378E+08   0.1844E-02
  0.6500       0.3420       0.5475        1.692        1.432       0.5699E-02   0.7045E+06   -13.55      -0.2362E+08   0.1843E-02
  0.6517       0.3440       0.5498        1.698        1.439       0.5670E-02   0.7009E+06   -13.53      -0.2347E+08   0.1842E-02
  0.6535       0.3460       0.5521        1.705        1.447       0.5642E-02   0.6974E+06   -13.52      -0.2332E+08   0.1841E-02
  0.6552       0.3480       0.5544        1.711        1.454       0.5613E-02   0.6939E+06   -13.50      -0.2318E+08   0.1840E-02
  0.6569       0.3500       0.5567        1.718        1.462       0.5585E-02   0.6904E+06   -13.48      -0.2303E+08   0.1839E-02
  0.6586       0.3520       0.5590        1.725        1.469       0.5558E-02   0.6870E+06   -13.46      -0.2289E+08   0.1838E-02
  0.6604       0.3540       0.5613        1.731        1.477       0.5530E-02   0.6836E+06   -13.44      -0.2274E+08   0.1837E-02
  0.6621       0.3560       0.5636        1.738        1.484       0.5503E-02   0.6802E+06   -13.42      -0.2260E+08   0.1836E-02
  0.6638       0.3580       0.5659        1.744        1.491       0.5476E-02   0.6769E+06   -13.40      -0.2246E+08   0.1835E-02
  0.6655       0.3600       0.5681        1.751        1.499       0.5449E-02   0.6736E+06   -13.38      -0.2232E+08   0.1834E-02
  0.6671       0.3620       0.5704        1.758        1.506       0.5423E-02   0.6704E+06   -13.36      -0.2219E+08   0.1833E-02
  0.6688       0.3640       0.5726        1.764        1.514       0.5397E-02   0.6671E+06   -13.33      -0.2205E+08   0.1832E-02
  0.6705       0.3660       0.5748        1.771        1.521       0.5371E-02   0.6639E+06   -13.31      -0.2192E+08   0.1831E-02
  0.6722       0.3680       0.5771        1.778        1.528       0.5346E-02   0.6608E+06   -13.29      -0.2179E+08   0.1830E-02
  0.6738       0.3700       0.5793        1.785        1.536       0.5320E-02   0.6577E+06   -13.26      -0.2166E+08   0.1829E-02
  0.6755       0.3720       0.5815        1.791        1.543       0.5295E-02   0.6546E+06   -13.24      -0.2153E+08   0.1829E-02
  0.6771       0.3740       0.5837        1.798        1.551       0.5270E-02   0.6515E+06   -13.22      -0.2140E+08   0.1828E-02
  0.6788       0.3760       0.5859        1.805        1.558       0.5246E-02   0.6485E+06   -13.19      -0.2127E+08   0.1827E-02
  0.6804       0.3780       0.5881        1.812        1.565       0.5222E-02   0.6455E+06   -13.17      -0.2115E+08   0.1826E-02
  0.6820       0.3800       0.5902        1.819        1.573       0.5198E-02   0.6425E+06   -13.14      -0.2103E+08   0.1825E-02
  0.6837       0.3820       0.5924        1.825        1.580       0.5174E-02   0.6395E+06   -13.11      -0.2090E+08   0.1824E-02
  0.6853       0.3840       0.5946        1.832        1.587       0.5150E-02   0.6366E+06   -13.09      -0.2078E+08   0.1823E-02
  0.6869       0.3860       0.5967        1.839        1.595       0.5127E-02   0.6338E+06   -13.06      -0.2066E+08   0.1822E-02
  0.6885       0.3880       0.5989        1.846        1.602       0.5104E-02   0.6309E+06   -13.03      -0.2055E+08   0.1821E-02
  0.6901       0.3900       0.6010        1.853        1.609       0.5081E-02   0.6281E+06   -13.01      -0.2043E+08   0.1820E-02
  0.6917       0.3920       0.6031        1.860        1.617       0.5058E-02   0.6253E+06   -12.98      -0.2031E+08   0.1819E-02
  0.6933       0.3940       0.6052        1.867        1.624       0.5036E-02   0.6225E+06   -12.95      -0.2020E+08   0.1818E-02
  0.6949       0.3960       0.6074        1.874        1.631       0.5014E-02   0.6198E+06   -12.92      -0.2009E+08   0.1817E-02
  0.6965       0.3980       0.6095        1.881        1.639       0.4992E-02   0.6171E+06   -12.89      -0.1997E+08   0.1816E-02
  0.6980       0.4000       0.6116        1.888        1.646       0.4970E-02   0.6144E+06   -12.86      -0.1986E+08   0.1815E-02
  0.6996       0.4020       0.6136        1.895        1.654       0.4949E-02   0.6117E+06   -12.83      -0.1975E+08   0.1814E-02
  0.7012       0.4040       0.6157        1.902        1.661       0.4928E-02   0.6091E+06   -12.80      -0.1965E+08   0.1813E-02
  0.7027       0.4060       0.6178        1.909        1.668       0.4907E-02   0.6065E+06   -12.77      -0.1954E+08   0.1812E-02
  0.7043       0.4080       0.6199        1.916        1.676       0.4886E-02   0.6039E+06   -12.74      -0.1943E+08   0.1811E-02
  0.7058       0.4100       0.6219        1.923        1.683       0.4865E-02   0.6014E+06   -12.71      -0.1933E+08   0.1810E-02
  0.7073       0.4120       0.6240        1.930        1.690       0.4845E-02   0.5989E+06   -12.68      -0.1922E+08   0.1809E-02
  0.7089       0.4140       0.6260        1.937        1.698       0.4825E-02   0.5964E+06   -12.65      -0.1912E+08   0.1808E-02
  0.7104       0.4160       0.6280        1.944        1.705       0.4805E-02   0.5939E+06   -12.61      -0.1902E+08   0.1807E-02
  0.7119       0.4180       0.6301        1.951        1.713       0.4785E-02   0.5915E+06   -12.58      -0.1892E+08   0.1806E-02
  0.7134       0.4200       0.6321        1.958        1.720       0.4765E-02   0.5890E+06   -12.55      -0.1882E+08   0.1805E-02
  0.7150       0.4220       0.6341        1.965        1.727       0.4746E-02   0.5867E+06   -12.52      -0.1872E+08   0.1804E-02
  0.7165       0.4240       0.6361        1.973        1.735       0.4727E-02   0.5843E+06   -12.49      -0.1863E+08   0.1803E-02
  0.7180       0.4260       0.6381        1.980        1.742       0.4708E-02   0.5819E+06   -12.45      -0.1853E+08   0.1802E-02
  0.7195       0.4280       0.6401        1.987        1.750       0.4689E-02   0.5796E+06   -12.42      -0.1843E+08   0.1801E-02
  0.7210       0.4300       0.6421        1.994        1.757       0.4670E-02   0.5773E+06   -12.39      -0.1834E+08   0.1800E-02
  0.7224       0.4320       0.6441        2.002        1.449       0.4652E-02   0.5750E+06   -10.14      -0.1825E+08   0.1799E-02
  0.7246       0.4340       0.6460        2.009        1.454       0.4634E-02   0.5728E+06   -10.10      -0.1816E+08   0.1798E-02
  0.7260       0.4360       0.6480        2.016        1.777       0.4616E-02   0.5705E+06   -12.27      -0.1806E+08   0.1797E-02
  0.7275       0.4380       0.6499        2.023        1.785       0.4598E-02   0.5683E+06   -12.24      -0.1798E+08   0.1796E-02
  0.7290       0.4400       0.6519        2.031        1.792       0.4580E-02   0.5661E+06   -12.21      -0.1789E+08   0.1795E-02
  0.7305       0.4420       0.6538        2.038        1.800       0.4562E-02   0.5640E+06   -12.18      -0.1780E+08   0.1794E-02
  0.7319       0.4440       0.6558        2.045        1.807       0.4545E-02   0.5618E+06   -12.15      -0.1771E+08   0.1793E-02
  0.7334       0.4460       0.6577        2.053        1.815       0.4528E-02   0.5597E+06   -12.12      -0.1763E+08   0.1792E-02
  0.7348       0.4480       0.6596        2.060        1.822       0.4511E-02   0.5576E+06   -12.09      -0.1754E+08   0.1791E-02
  0.7363       0.4500       0.6615        2.067        1.830       0.4494E-02   0.5555E+06   -12.06      -0.1746E+08   0.1790E-02
  0.7377       0.4520       0.6634        2.075        1.837       0.4477E-02   0.5534E+06   -12.03      -0.1738E+08   0.1789E-02
  0.7391       0.4540       0.6653        2.082        1.845       0.4461E-02   0.5514E+06   -12.00      -0.1729E+08   0.1788E-02
  0.7406       0.4560       0.6672        2.090        1.852       0.4444E-02   0.5494E+06   -11.97      -0.1721E+08   0.1787E-02
  0.7420       0.4580       0.6691        2.097        1.860       0.4428E-02   0.5474E+06   -11.94      -0.1713E+08   0.1786E-02
  0.7434       0.4600       0.6710        2.105        1.867       0.4412E-02   0.5454E+06   -11.91      -0.1705E+08   0.1785E-02
  0.7448       0.4620       0.6729        2.112        1.875       0.4396E-02   0.5434E+06   -11.88      -0.1697E+08   0.1784E-02
  0.7462       0.4640       0.6747        2.120        1.882       0.4380E-02   0.5415E+06   -11.85      -0.1690E+08   0.1783E-02
  0.7476       0.4660       0.6766        2.127        1.890       0.4365E-02   0.5395E+06   -11.82      -0.1682E+08   0.1782E-02
  0.7490       0.4680       0.6784        2.135        1.898       0.4349E-02   0.5376E+06   -11.79      -0.1674E+08   0.1781E-02
  0.7504       0.4700       0.6803        2.142        1.905       0.4334E-02   0.5357E+06   -11.76      -0.1667E+08   0.1780E-02
  0.7518       0.4720       0.6821        2.150        1.913       0.4319E-02   0.5338E+06   -11.73      -0.1659E+08   0.1779E-02
  0.7532       0.4740       0.6840        2.158        1.921       0.4304E-02   0.5320E+06   -11.71      -0.1652E+08   0.1778E-02
  0.7546       0.4760       0.6858        2.165        1.928       0.4289E-02   0.5301E+06   -11.68      -0.1645E+08   0.1777E-02
  0.7560       0.4780       0.6876        2.173        1.936       0.4274E-02   0.5283E+06   -11.65      -0.1638E+08   0.1776E-02
  0.7573       0.4800       0.6894        2.181        1.944       0.4259E-02   0.5265E+06   -11.62      -0.1630E+08   0.1775E-02
  0.7587       0.4820       0.6912        2.188        1.951       0.4245E-02   0.5247E+06   -11.60      -0.1623E+08   0.1774E-02
  0.7601       0.4840       0.6930        2.196        1.959       0.4230E-02   0.5229E+06   -11.57      -0.1616E+08   0.1773E-02
  0.7614       0.4860       0.6948        2.204        1.967       0.4216E-02   0.5211E+06   -11.54      -0.1609E+08   0.1772E-02
  0.7628       0.4880       0.6966        2.211        1.975       0.4202E-02   0.5194E+06   -11.51      -0.1603E+08   0.1771E-02
  0.7641       0.4900       0.6984        2.219        1.982       0.4188E-02   0.5177E+06   -11.48      -0.1596E+08   0.1770E-02
  0.7655       0.4920       0.7002        2.227        1.990       0.4174E-02   0.5160E+06   -11.46      -0.1589E+08   0.1769E-02
  0.7668       0.4940       0.7019        2.235        1.998       0.4160E-02   0.5143E+06   -11.43      -0.1583E+08   0.1768E-02
  0.7682       0.4960       0.7037        2.242        2.006       0.4147E-02   0.5126E+06   -11.40      -0.1576E+08   0.1767E-02
  0.7695       0.4980       0.7055        2.250        2.014       0.4133E-02   0.5109E+06   -11.38      -0.1570E+08   0.1766E-02
  0.7708       0.5000       0.7072        2.258        2.022       0.4120E-02   0.5092E+06   -11.35      -0.1563E+08   0.1765E-02
  0.7722       0.5020       0.7090        2.266        2.030       0.4106E-02   0.5076E+06   -11.32      -0.1557E+08   0.1764E-02
  0.7735       0.5040       0.7107        2.274        2.038       0.4093E-02   0.5060E+06   -11.30      -0.1551E+08   0.1763E-02
  0.7748       0.5060       0.7124        2.282        2.045       0.4080E-02   0.5044E+06   -11.27      -0.1544E+08   0.1762E-02
  0.7761       0.5080       0.7142        2.290        2.053       0.4067E-02   0.5028E+06   -11.25      -0.1538E+08   0.1761E-02
  0.7774       0.5100       0.7159        2.298        2.061       0.4054E-02   0.5012E+06   -11.22      -0.1532E+08   0.1760E-02
  0.7787       0.5120       0.7176        2.306        2.070       0.4042E-02   0.4996E+06   -11.19      -0.1526E+08   0.1759E-02
  0.7800       0.5140       0.7193        2.314        2.078       0.4029E-02   0.4980E+06   -11.17      -0.1520E+08   0.1758E-02
  0.7813       0.5160       0.7210        2.322        2.086       0.4017E-02   0.4965E+06   -11.14      -0.1514E+08   0.1757E-02
  0.7826       0.5180       0.7227        2.330        2.094       0.4004E-02   0.4950E+06   -11.12      -0.1508E+08   0.1755E-02
  0.7839       0.5200       0.7244        2.338        2.102       0.3992E-02   0.4934E+06   -11.09      -0.1503E+08   0.1754E-02
  0.7852       0.5220       0.7261        2.346        2.110       0.3980E-02   0.4919E+06   -11.07      -0.1497E+08   0.1753E-02
  0.7864       0.5240       0.7278        2.354        2.118       0.3968E-02   0.4904E+06   -11.04      -0.1491E+08   0.1752E-02
  0.7877       0.5260       0.7294        2.362        2.127       0.3956E-02   0.4890E+06   -11.02      -0.1486E+08   0.1751E-02
  0.7890       0.5280       0.7311        2.370        2.135       0.3944E-02   0.4875E+06   -10.99      -0.1480E+08   0.1750E-02
  0.7903       0.5300       0.7328        2.378        2.143       0.3932E-02   0.4860E+06   -10.97      -0.1475E+08   0.1749E-02
  0.7915       0.5320       0.7344        2.386        2.151       0.3920E-02   0.4846E+06   -10.94      -0.1469E+08   0.1748E-02
  0.7928       0.5340       0.7361        2.395        2.160       0.3909E-02   0.4832E+06   -10.92      -0.1464E+08   0.1747E-02
  0.7940       0.5360       0.7377        2.403        2.168       0.3897E-02   0.4817E+06   -10.89      -0.1459E+08   0.1746E-02
  0.7953       0.5380       0.7394        2.411        2.177       0.3886E-02   0.4803E+06   -10.87      -0.1453E+08   0.1745E-02
  0.7965       0.5400       0.7410        2.419        2.185       0.3875E-02   0.4789E+06   -10.85      -0.1448E+08   0.1744E-02
  0.7978       0.5420       0.7426        2.428        2.193       0.3863E-02   0.4776E+06   -10.82      -0.1443E+08   0.1743E-02
  0.7990       0.5440       0.7442        2.436        2.202       0.3852E-02   0.4762E+06   -10.80      -0.1438E+08   0.1742E-02
  0.8003       0.5460       0.7459        2.444        2.210       0.3841E-02   0.4748E+06   -10.78      -0.1433E+08   0.1741E-02
  0.8015       0.5480       0.7475        2.452        2.219       0.3830E-02   0.4735E+06   -10.75      -0.1428E+08   0.1740E-02
  0.8027       0.5500       0.7491        2.461        2.228       0.3819E-02   0.4721E+06   -10.73      -0.1423E+08   0.1739E-02
  0.8039       0.5520       0.7507        2.469        2.236       0.3809E-02   0.4708E+06   -10.71      -0.1418E+08   0.1738E-02
  0.8052       0.5540       0.7523        2.478        2.245       0.3798E-02   0.4695E+06   -10.68      -0.1413E+08   0.1737E-02
  0.8064       0.5560       0.7539        2.486        2.254       0.3787E-02   0.4682E+06   -10.66      -0.1408E+08   0.1735E-02
  0.8076       0.5580       0.7555        2.495        2.263       0.3777E-02   0.4669E+06   -10.63      -0.1404E+08   0.1734E-02
  0.8088       0.5600       0.7570        2.503        2.271       0.3767E-02   0.4656E+06   -10.61      -0.1399E+08   0.1733E-02
  0.8100       0.5620       0.7586        2.511        2.280       0.3756E-02   0.4643E+06   -10.59      -0.1394E+08   0.1732E-02
  0.8112       0.5640       0.7602        2.520        2.289       0.3746E-02   0.4630E+06   -10.56      -0.1390E+08   0.1731E-02
  0.8124       0.5660       0.7617        2.529        2.298       0.3736E-02   0.4618E+06   -10.53      -0.1385E+08   0.1730E-02
  0.8136       0.5680       0.7633        2.537        2.307       0.3726E-02   0.4605E+06   -10.51      -0.1380E+08   0.1729E-02
  0.8148       0.5700       0.7649        2.546        2.316       0.3716E-02   0.4593E+06   -10.48      -0.1376E+08   0.1728E-02
  0.8160       0.5720       0.7664        2.554        2.325       0.3706E-02   0.4581E+06   -10.46      -0.1371E+08   0.1727E-02
  0.8171       0.5740       0.7679        2.563        2.334       0.3696E-02   0.4569E+06   -10.43      -0.1367E+08   0.1726E-02
  0.8183       0.5760       0.7695        2.572        2.344       0.3686E-02   0.4557E+06   -10.40      -0.1362E+08   0.1725E-02
  0.8195       0.5780       0.7710        2.580        2.353       0.3677E-02   0.4545E+06   -10.37      -0.1358E+08   0.1724E-02
  0.8207       0.5800       0.7725        2.589        2.362       0.3667E-02   0.4533E+06   -10.34      -0.1354E+08   0.1723E-02
  0.8218       0.5820       0.7741        2.598        2.372       0.3658E-02   0.4521E+06   -10.31      -0.1349E+08   0.1722E-02
  0.8230       0.5840       0.7756        2.606        2.381       0.3648E-02   0.4510E+06   -10.27      -0.1345E+08   0.1720E-02
  0.8242       0.5860       0.7771        2.615        2.390       0.3639E-02   0.4498E+06   -10.24      -0.1341E+08   0.1719E-02
  0.8253       0.5880       0.7786        2.624        2.400       0.3630E-02   0.4487E+06   -10.21      -0.1336E+08   0.1718E-02
  0.8265       0.5900       0.7801        2.633        2.410       0.3620E-02   0.4475E+06   -10.17      -0.1332E+08   0.1717E-02
  0.8276       0.5920       0.7816        2.642        2.419       0.3611E-02   0.4464E+06   -10.14      -0.1328E+08   0.1716E-02
  0.8288       0.5940       0.7831        2.651        2.429       0.3602E-02   0.4453E+06   -10.10      -0.1324E+08   0.1715E-02
  0.8299       0.5960       0.7846        2.660        2.439       0.3593E-02   0.4442E+06   -10.06      -0.1320E+08   0.1714E-02
  0.8311       0.5980       0.7861        2.668        2.449       0.3585E-02   0.4431E+06   -10.02      -0.1316E+08   0.1713E-02
  0.8322       0.6000       0.7875        2.677        2.459       0.3576E-02   0.4420E+06   -9.984      -0.1311E+08   0.1712E-02
  0.8333       0.6020       0.7890        2.686        2.468       0.3567E-02   0.4409E+06   -9.944      -0.1307E+08   0.1711E-02
  0.8345       0.6040       0.7905        2.695        2.479       0.3559E-02   0.4399E+06   -9.903      -0.1303E+08   0.1710E-02
  0.8356       0.6060       0.7919        2.704        2.489       0.3550E-02   0.4388E+06   -9.861      -0.1299E+08   0.1708E-02
  0.8367       0.6080       0.7934        2.714        2.499       0.3542E-02   0.4378E+06   -9.818      -0.1295E+08   0.1707E-02
  0.8378       0.6100       0.7949        2.723        2.509       0.3533E-02   0.4368E+06   -9.775      -0.1291E+08   0.1706E-02
  0.8389       0.6120       0.7963        2.732        2.519       0.3525E-02   0.4357E+06   -9.731      -0.1287E+08   0.1705E-02
  0.8401       0.6140       0.7977        2.741        2.530       0.3517E-02   0.4347E+06   -9.687      -0.1284E+08   0.1704E-02
  0.8412       0.6160       0.7992        2.750        2.540       0.3509E-02   0.4337E+06   -9.641      -0.1280E+08   0.1703E-02
  0.8423       0.6180       0.8006        2.759        2.551       0.3501E-02   0.4327E+06   -9.595      -0.1276E+08   0.1702E-02
  0.8434       0.6200       0.8020        2.769        2.561       0.3493E-02   0.4318E+06   -9.548      -0.1272E+08   0.1701E-02
  0.8445       0.6220       0.8035        2.778        2.572       0.3485E-02   0.4308E+06   -9.499      -0.1268E+08   0.1700E-02
  0.8456       0.6240       0.8049        2.787        2.583       0.3477E-02   0.4298E+06   -9.451      -0.1264E+08   0.1699E-02
  0.8467       0.6260       0.8063        2.796        2.593       0.3470E-02   0.4289E+06   -9.401      -0.1261E+08   0.1697E-02
  0.8477       0.6280       0.8077        2.806        2.604       0.3462E-02   0.4279E+06   -9.351      -0.1257E+08   0.1696E-02
  0.8488       0.6300       0.8091        2.815        2.615       0.3454E-02   0.4270E+06   -9.300      -0.1253E+08   0.1695E-02
  0.8499       0.6320       0.8105        2.825        2.626       0.3447E-02   0.4261E+06   -9.249      -0.1250E+08   0.1694E-02
  0.8510       0.6340       0.8119        2.834        2.638       0.3440E-02   0.4252E+06   -9.197      -0.1246E+08   0.1693E-02
  0.8521       0.6360       0.8133        2.844        2.649       0.3432E-02   0.4243E+06   -9.145      -0.1242E+08   0.1692E-02
  0.8531       0.6380       0.8147        2.853        2.660       0.3425E-02   0.4234E+06   -9.092      -0.1238E+08   0.1691E-02
  0.8542       0.6400       0.8161        2.863        2.672       0.3418E-02   0.4225E+06   -9.038      -0.1235E+08   0.1690E-02
  0.8553       0.6420       0.8174        2.872        2.683       0.3411E-02   0.4216E+06   -8.983      -0.1231E+08   0.1689E-02
  0.8563       0.6440       0.8188        2.882        2.695       0.3404E-02   0.4208E+06   -8.928      -0.1228E+08   0.1687E-02
  0.8574       0.6460       0.8202        2.891        2.706       0.3397E-02   0.4199E+06   -8.873      -0.1224E+08   0.1686E-02
  0.8585       0.6480       0.8215        2.901        2.718       0.3390E-02   0.4191E+06   -8.816      -0.1221E+08   0.1685E-02
  0.8595       0.6500       0.8229        2.911        2.730       0.3383E-02   0.4182E+06   -8.760      -0.1217E+08   0.1684E-02
  0.8606       0.6520       0.8243        2.921        2.742       0.3377E-02   0.4174E+06   -8.703      -0.1214E+08   0.1683E-02
  0.8616       0.6540       0.8256        2.930        2.754       0.3370E-02   0.4166E+06   -8.645      -0.1211E+08   0.1682E-02
  0.8626       0.6560       0.8270        2.940        2.766       0.3364E-02   0.4158E+06   -8.587      -0.1207E+08   0.1681E-02
  0.8637       0.6580       0.8283        2.950        2.778       0.3357E-02   0.4150E+06   -8.528      -0.1204E+08   0.1680E-02
  0.8647       0.6600       0.8296        2.960        2.790       0.3351E-02   0.4142E+06   -8.468      -0.1201E+08   0.1679E-02
  0.8658       0.6620       0.8310        2.970        2.802       0.3345E-02   0.4134E+06   -8.408      -0.1197E+08   0.1677E-02
  0.8668       0.6640       0.8323        2.980        2.814       0.3338E-02   0.4127E+06   -8.348      -0.1194E+08   0.1676E-02
  0.8678       0.6660       0.8336        2.990        2.827       0.3332E-02   0.4119E+06   -8.287      -0.1191E+08   0.1675E-02
  0.8688       0.6680       0.8349        3.000        2.840       0.3326E-02   0.4112E+06   -8.225      -0.1188E+08   0.1674E-02
  0.8699       0.6700       0.8362        3.010        2.852       0.3320E-02   0.4104E+06   -8.163      -0.1185E+08   0.1673E-02
  0.8709       0.6720       0.8376        3.020        2.865       0.3314E-02   0.4097E+06   -8.101      -0.1181E+08   0.1672E-02
  0.8719       0.6740       0.8389        3.030        2.878       0.3308E-02   0.4090E+06   -8.038      -0.1178E+08   0.1671E-02
  0.8729       0.6760       0.8402        3.040        2.891       0.3303E-02   0.4083E+06   -7.975      -0.1175E+08   0.1669E-02
  0.8739       0.6780       0.8415        3.050        2.904       0.3297E-02   0.4076E+06   -7.912      -0.1172E+08   0.1668E-02
  0.8749       0.6800       0.8427        3.061        2.917       0.3291E-02   0.4069E+06   -7.847      -0.1169E+08   0.1667E-02
  0.8759       0.6820       0.8440        3.071        2.930       0.3286E-02   0.4062E+06   -7.783      -0.1166E+08   0.1666E-02
  0.8769       0.6840       0.8453        3.081        2.944       0.3280E-02   0.4055E+06   -7.718      -0.1163E+08   0.1665E-02
  0.8779       0.6860       0.8466        3.091        2.957       0.3275E-02   0.4048E+06   -7.652      -0.1160E+08   0.1664E-02
  0.8789       0.6880       0.8479        3.102        2.971       0.3270E-02   0.4042E+06   -7.586      -0.1157E+08   0.1663E-02
  0.8799       0.6900       0.8491        3.112        2.985       0.3264E-02   0.4035E+06   -7.520      -0.1154E+08   0.1661E-02
  0.8809       0.6920       0.8504        3.123        2.999       0.3259E-02   0.4029E+06   -7.453      -0.1151E+08   0.1660E-02
  0.8819       0.6940       0.8517        3.133        3.013       0.3254E-02   0.4022E+06   -7.387      -0.1149E+08   0.1659E-02
  0.8829       0.6960       0.8529        3.144        3.027       0.3249E-02   0.4016E+06   -7.320      -0.1146E+08   0.1658E-02
  0.8839       0.6980       0.8542        3.154        3.041       0.3244E-02   0.4010E+06   -7.253      -0.1143E+08   0.1657E-02
  0.8848       0.7000       0.8554        3.165        3.056       0.3239E-02   0.4004E+06   -7.185      -0.1140E+08   0.1656E-02
  0.8858       0.7020       0.8567        3.176        3.070       0.3234E-02   0.3998E+06   -7.117      -0.1137E+08   0.1655E-02
  0.8868       0.7040       0.8579        3.186        3.085       0.3230E-02   0.3992E+06   -7.050      -0.1135E+08   0.1653E-02
  0.8877       0.7060       0.8592        3.197        3.099       0.3225E-02   0.3986E+06   -6.982      -0.1132E+08   0.1652E-02
  0.8887       0.7080       0.8604        3.208        3.114       0.3220E-02   0.3981E+06   -6.914      -0.1129E+08   0.1651E-02
  0.8897       0.7100       0.8616        3.219        3.129       0.3216E-02   0.3975E+06   -6.845      -0.1127E+08   0.1650E-02
  0.8906       0.7120       0.8628        3.230        3.145       0.3211E-02   0.3969E+06   -6.776      -0.1124E+08   0.1649E-02
  0.8916       0.7140       0.8641        3.241        3.160       0.3207E-02   0.3964E+06   -6.707      -0.1121E+08   0.1648E-02
  0.8925       0.7160       0.8653        3.252        3.176       0.3202E-02   0.3958E+06   -6.638      -0.1119E+08   0.1646E-02
  0.8935       0.7180       0.8665        3.263        3.191       0.3198E-02   0.3953E+06   -6.569      -0.1116E+08   0.1645E-02
  0.8944       0.7200       0.8677        3.274        3.207       0.3194E-02   0.3948E+06   -6.500      -0.1114E+08   0.1644E-02
  0.8954       0.7220       0.8689        3.285        3.223       0.3189E-02   0.3943E+06   -6.430      -0.1111E+08   0.1643E-02
  0.8963       0.7240       0.8701        3.296        3.239       0.3185E-02   0.3937E+06   -6.361      -0.1109E+08   0.1642E-02
  0.8973       0.7260       0.8713        3.307        3.255       0.3181E-02   0.3932E+06   -6.293      -0.1106E+08   0.1641E-02
  0.8982       0.7280       0.8725        3.319        3.272       0.3177E-02   0.3928E+06   -6.225      -0.1104E+08   0.1639E-02
  0.8991       0.7300       0.8737        3.330        3.288       0.3173E-02   0.3923E+06   -6.157      -0.1102E+08   0.1638E-02
  0.9001       0.7320       0.8749        3.341        3.305       0.3169E-02   0.3918E+06   -6.090      -0.1099E+08   0.1637E-02
  0.9010       0.7340       0.8760        3.353        3.322       0.3166E-02   0.3913E+06   -6.023      -0.1097E+08   0.1636E-02
  0.9019       0.7360       0.8772        3.364        3.339       0.3162E-02   0.3908E+06   -5.957      -0.1095E+08   0.1635E-02
  0.9028       0.7380       0.8784        3.376        3.357       0.3158E-02   0.3904E+06   -5.890      -0.1092E+08   0.1634E-02
  0.9038       0.7400       0.8796        3.387        3.374       0.3154E-02   0.3899E+06   -5.823      -0.1090E+08   0.1632E-02
  0.9047       0.7420       0.8807        3.399        3.391       0.3151E-02   0.3895E+06   -5.756      -0.1088E+08   0.1631E-02
  0.9056       0.7440       0.8819        3.411        3.409       0.3147E-02   0.3891E+06   -5.691      -0.1086E+08   0.1630E-02
  0.9065       0.7460       0.8830        3.422        2.262       0.3144E-02   0.3886E+06   -3.714      -0.1084E+08   0.1629E-02
  0.9083       0.7480       0.8842        3.434        2.271       0.3140E-02   0.3882E+06   -3.669      -0.1082E+08   0.1628E-02
  0.9092       0.7500       0.8853        3.446        3.456       0.3137E-02   0.3878E+06   -5.502      -0.1080E+08   0.1626E-02
  0.9101       0.7520       0.8865        3.458        3.474       0.3134E-02   0.3874E+06   -5.458      -0.1078E+08   0.1625E-02
  0.9110       0.7540       0.8876        3.470        3.493       0.3130E-02   0.3870E+06   -5.418      -0.1076E+08   0.1624E-02
  0.9119       0.7560       0.8888        3.482        3.511       0.3127E-02   0.3866E+06   -5.380      -0.1075E+08   0.1623E-02
  0.9128       0.7580       0.8899        3.494        3.530       0.3124E-02   0.3862E+06   -5.347      -0.1073E+08   0.1622E-02
  0.9137       0.7600       0.8910        3.506        3.549       0.3121E-02   0.3858E+06   -5.325      -0.1072E+08   0.1620E-02
  0.9146       0.7620       0.8921        3.518        3.568       0.3118E-02   0.3854E+06   -5.328      -0.1070E+08   0.1619E-02
  0.9155       0.7640       0.8933        3.530        3.586       0.3114E-02   0.3850E+06   -5.359      -0.1069E+08   0.1618E-02
  0.9164       0.7660       0.8944        3.543        3.605       0.3111E-02   0.3846E+06   -5.400      -0.1069E+08   0.1617E-02
  0.9173       0.7680       0.8955        3.555        3.625       0.3108E-02   0.3842E+06   -5.407      -0.1068E+08   0.1616E-02
  0.9182       0.7700       0.8966        3.567        3.646       0.3105E-02   0.3838E+06   -5.346      -0.1066E+08   0.1614E-02
  0.9190       0.7720       0.8977        3.580        3.667       0.3102E-02   0.3834E+06   -5.232      -0.1063E+08   0.1613E-02
  0.9199       0.7740       0.8988        3.592        3.687       0.3099E-02   0.3830E+06   -5.175      -0.1061E+08   0.1612E-02
  0.9208       0.7760       0.8999        3.605        3.705       0.3096E-02   0.3827E+06   -5.324      -0.1062E+08   0.1611E-02
  0.9217       0.7780       0.9010        3.618        3.721       0.3093E-02   0.3823E+06   -5.754      -0.1066E+08   0.1609E-02
  0.9225       0.7800       0.9021        3.630        3.735       0.3089E-02   0.3818E+06   -6.391      -0.1072E+08   0.1608E-02
  0.9234       0.7820       0.9032        3.643        3.749       0.3085E-02   0.3814E+06   -7.029      -0.1078E+08   0.1607E-02
  0.9242       0.7840       0.9042        3.656        3.765       0.3081E-02   0.3809E+06   -7.472      -0.1082E+08   0.1606E-02
  0.9251       0.7860       0.9053        3.669        3.785       0.3077E-02   0.3803E+06   -7.671      -0.1082E+08   0.1605E-02
  0.9260       0.7880       0.9064        3.682        3.807       0.3072E-02   0.3798E+06   -7.698      -0.1081E+08   0.1603E-02
  0.9268       0.7900       0.9075        3.695        3.830       0.3068E-02   0.3792E+06   -7.678      -0.1079E+08   0.1602E-02
  0.9277       0.7920       0.9085        3.708        3.853       0.3064E-02   0.3787E+06   -7.694      -0.1078E+08   0.1601E-02
  0.9285       0.7940       0.9096        3.721        3.877       0.3059E-02   0.3782E+06   -7.758      -0.1077E+08   0.1600E-02
  0.9294       0.7960       0.9107        3.734        3.900       0.3055E-02   0.3776E+06   -7.848      -0.1076E+08   0.1598E-02
  0.9302       0.7980       0.9117        3.747        3.924       0.3051E-02   0.3771E+06   -7.942      -0.1076E+08   0.1597E-02
  0.9310       0.8000       0.9128        3.761        3.948       0.3046E-02   0.3766E+06   -8.028      -0.1075E+08   0.1596E-02
  0.9319       0.8020       0.9138        3.774        3.972       0.3042E-02   0.3760E+06   -8.106      -0.1075E+08   0.1595E-02
  0.9327       0.8040       0.9149        3.787        3.997       0.3037E-02   0.3755E+06   -8.184      -0.1074E+08   0.1593E-02
  0.9335       0.8060       0.9159        3.801        4.022       0.3033E-02   0.3749E+06   -8.266      -0.1074E+08   0.1592E-02
  0.9344       0.8080       0.9169        3.815        4.048       0.3028E-02   0.3744E+06   -8.355      -0.1073E+08   0.1591E-02
  0.9352       0.8100       0.9180        3.828        4.074       0.3024E-02   0.3738E+06   -8.449      -0.1073E+08   0.1589E-02
  0.9360       0.8120       0.9190        3.842        4.101       0.3019E-02   0.3732E+06   -8.546      -0.1073E+08   0.1588E-02
  0.9368       0.8140       0.9200        3.856        4.128       0.3015E-02   0.3727E+06   -8.645      -0.1072E+08   0.1587E-02
  0.9377       0.8160       0.9210        3.870        4.155       0.3010E-02   0.3721E+06   -8.746      -0.1072E+08   0.1586E-02
  0.9385       0.8180       0.9221        3.884        4.183       0.3006E-02   0.3715E+06   -8.848      -0.1072E+08   0.1584E-02
  0.9393       0.8200       0.9231        3.898        4.212       0.3001E-02   0.3710E+06   -8.951      -0.1071E+08   0.1583E-02
  0.9401       0.8220       0.9241        3.912        4.241       0.2996E-02   0.3704E+06   -9.058      -0.1071E+08   0.1582E-02
  0.9409       0.8240       0.9251        3.927        4.270       0.2992E-02   0.3698E+06   -9.167      -0.1071E+08   0.1580E-02
  0.9417       0.8260       0.9261        3.941        4.300       0.2987E-02   0.3692E+06   -9.279      -0.1071E+08   0.1579E-02
  0.9425       0.8280       0.9271        3.956        4.331       0.2982E-02   0.3686E+06   -9.393      -0.1071E+08   0.1578E-02
  0.9433       0.8300       0.9281        3.970        4.362       0.2977E-02   0.3680E+06   -9.509      -0.1070E+08   0.1577E-02
  0.9441       0.8320       0.9291        3.985        4.394       0.2972E-02   0.3674E+06   -9.627      -0.1070E+08   0.1575E-02
  0.9449       0.8340       0.9301        4.000        4.426       0.2967E-02   0.3668E+06   -9.747      -0.1070E+08   0.1574E-02
  0.9457       0.8360       0.9311        4.014        4.460       0.2962E-02   0.3662E+06   -9.870      -0.1070E+08   0.1573E-02
  0.9465       0.8380       0.9320        4.030        4.493       0.2957E-02   0.3656E+06   -9.996      -0.1070E+08   0.1571E-02
  0.9473       0.8400       0.9330        4.045        4.527       0.2952E-02   0.3649E+06   -10.12      -0.1070E+08   0.1570E-02
  0.9480       0.8420       0.9340        4.060        4.562       0.2947E-02   0.3643E+06   -10.25      -0.1070E+08   0.1569E-02
  0.9488       0.8440       0.9350        4.075        4.598       0.2942E-02   0.3637E+06   -10.38      -0.1070E+08   0.1567E-02
  0.9496       0.8460       0.9359        4.091        4.635       0.2937E-02   0.3631E+06   -10.52      -0.1070E+08   0.1566E-02
  0.9504       0.8480       0.9369        4.106        4.672       0.2932E-02   0.3624E+06   -10.66      -0.1070E+08   0.1565E-02
  0.9511       0.8500       0.9379        4.122        4.710       0.2927E-02   0.3618E+06   -10.80      -0.1070E+08   0.1563E-02
  0.9519       0.8520       0.9388        4.138        4.749       0.2921E-02   0.3611E+06   -10.94      -0.1070E+08   0.1562E-02
  0.9527       0.8540       0.9398        4.154        4.789       0.2916E-02   0.3605E+06   -11.09      -0.1071E+08   0.1561E-02
  0.9534       0.8560       0.9407        4.170        4.829       0.2911E-02   0.3598E+06   -11.24      -0.1071E+08   0.1559E-02
  0.9542       0.8580       0.9417        4.186        4.871       0.2905E-02   0.3591E+06   -11.40      -0.1071E+08   0.1558E-02
  0.9550       0.8600       0.9426        4.202        4.913       0.2900E-02   0.3585E+06   -11.56      -0.1072E+08   0.1556E-02
  0.9557       0.8620       0.9435        4.219        4.956       0.2894E-02   0.3578E+06   -11.72      -0.1072E+08   0.1555E-02
  0.9565       0.8640       0.9445        4.235        5.000       0.2889E-02   0.3571E+06   -11.90      -0.1072E+08   0.1554E-02
  0.9572       0.8660       0.9454        4.252        5.045       0.2883E-02   0.3564E+06   -12.08      -0.1073E+08   0.1552E-02
  0.9580       0.8680       0.9463        4.269        5.090       0.2878E-02   0.3557E+06   -12.27      -0.1073E+08   0.1551E-02
  0.9587       0.8700       0.9473        4.286        5.137       0.2872E-02   0.3550E+06   -12.48      -0.1074E+08   0.1549E-02
  0.9595       0.8720       0.9482        4.303        5.184       0.2866E-02   0.3543E+06   -12.71      -0.1075E+08   0.1548E-02
  0.9602       0.8740       0.9491        4.320        5.232       0.2860E-02   0.3536E+06   -12.96      -0.1076E+08   0.1547E-02
  0.9609       0.8760       0.9500        4.338        5.281       0.2854E-02   0.3528E+06   -13.23      -0.1078E+08   0.1545E-02
  0.9617       0.8780       0.9509        4.355        15.11       0.2848E-02   0.3521E+06   -38.31      -0.1079E+08   0.1544E-02
  0.9615       0.8800       0.9518        4.373        15.33       0.2842E-02   0.3513E+06   -39.37      -0.1080E+08   0.1542E-02
  0.9622       0.8820       0.9527        4.391        5.423       0.2836E-02   0.3506E+06   -14.11      -0.1082E+08   0.1541E-02
  0.9629       0.8840       0.9536        4.409        5.473       0.2830E-02   0.3498E+06   -14.51      -0.1084E+08   0.1539E-02
  0.9636       0.8860       0.9545        4.427        5.522       0.2823E-02   0.3490E+06   -15.05      -0.1088E+08   0.1538E-02
  0.9644       0.8880       0.9554        4.446        5.568       0.2817E-02   0.3482E+06   -15.79      -0.1094E+08   0.1536E-02
  0.9651       0.8900       0.9563        4.464        5.612       0.2809E-02   0.3473E+06   -16.73      -0.1102E+08   0.1535E-02
  0.9658       0.8920       0.9572        4.483        5.653       0.2802E-02   0.3464E+06   -17.89      -0.1111E+08   0.1533E-02
  0.9665       0.8940       0.9580        4.502        5.689       0.2794E-02   0.3454E+06   -19.32      -0.1123E+08   0.1532E-02
  0.9672       0.8960       0.9589        4.521        5.720       0.2786E-02   0.3443E+06   -21.06      -0.1138E+08   0.1530E-02
  0.9679       0.8980       0.9598        4.540        5.746       0.2776E-02   0.3432E+06   -23.13      -0.1156E+08   0.1529E-02
  0.9686       0.9000       0.9607        4.559        5.765       0.2766E-02   0.3419E+06   -25.54      -0.1176E+08   0.1527E-02
  0.9693       0.9020       0.9615        4.578        5.777       0.2755E-02   0.3405E+06   -28.35      -0.1200E+08   0.1526E-02
  0.9700       0.9040       0.9624        4.597        5.781       0.2742E-02   0.3390E+06   -31.67      -0.1228E+08   0.1524E-02
  0.9707       0.9060       0.9632        4.616        5.775       0.2729E-02   0.3373E+06   -35.53      -0.1260E+08   0.1523E-02
  0.9714       0.9080       0.9641        4.635        5.758       0.2713E-02   0.3354E+06   -39.96      -0.1296E+08   0.1521E-02
  0.9721       0.9100       0.9649        4.655        5.728       0.2696E-02   0.3333E+06   -45.05      -0.1337E+08   0.1520E-02
  0.9728       0.9120       0.9658        4.673        5.682       0.2677E-02   0.3309E+06   -51.01      -0.1385E+08   0.1518E-02
  0.9735       0.9140       0.9666        4.692        5.619       0.2656E-02   0.3283E+06   -58.04      -0.1441E+08   0.1517E-02
  0.9742       0.9160       0.9675        4.711        5.536       0.2632E-02   0.3253E+06   -66.23      -0.1504E+08   0.1515E-02
  0.9749       0.9180       0.9683        4.729        5.434       0.2605E-02   0.3220E+06   -75.67      -0.1575E+08   0.1513E-02
  0.9755       0.9200       0.9691        4.746        5.309       0.2574E-02   0.3182E+06   -86.52      -0.1654E+08   0.1512E-02
  0.9762       0.9220       0.9700        4.764        5.161       0.2540E-02   0.3139E+06   -99.07      -0.1742E+08   0.1510E-02
  0.9769       0.9240       0.9708        4.780        4.990       0.2501E-02   0.3092E+06   -113.6      -0.1841E+08   0.1509E-02
  0.9776       0.9260       0.9716        4.797        4.797       0.2458E-02   0.3038E+06   -130.3      -0.1949E+08   0.1507E-02
  0.9782       0.9280       0.9724        4.812        4.588       0.2409E-02   0.2977E+06   -149.3      -0.2065E+08   0.1505E-02
  0.9789       0.9300       0.9733        4.827        4.368       0.2354E-02   0.2910E+06   -170.6      -0.2186E+08   0.1504E-02
  0.9796       0.9320       0.9741        4.841        4.144       0.2294E-02   0.2835E+06   -194.2      -0.2309E+08   0.1502E-02
  0.9802       0.9340       0.9749        4.854        3.924       0.2227E-02   0.2753E+06   -220.3      -0.2432E+08   0.1501E-02
  0.9809       0.9360       0.9757        4.866        3.719       0.2154E-02   0.2663E+06   -249.2      -0.2553E+08   0.1499E-02
  0.9816       0.9380       0.9765        4.878        3.543       0.2075E-02   0.2564E+06   -281.1      -0.2668E+08   0.1497E-02
  0.9822       0.9400       0.9773        4.890        3.417       0.1989E-02   0.2458E+06   -315.2      -0.2765E+08   0.1496E-02
  0.9829       0.9420       0.9781        4.901        3.358       0.1898E-02   0.2346E+06   -349.9      -0.2834E+08   0.1494E-02
  0.9835       0.9440       0.9789        4.912        3.378       0.1802E-02   0.2227E+06   -384.8      -0.2873E+08   0.1492E-02
  0.9842       0.9460       0.9797        4.923        3.481       0.1703E-02   0.2105E+06   -419.9      -0.2881E+08   0.1490E-02
  0.9848       0.9480       0.9805        4.934        3.672       0.1602E-02   0.1980E+06   -454.7      -0.2858E+08   0.1489E-02
  0.9855       0.9500       0.9813        4.947        3.958       0.1500E-02   0.1854E+06   -488.1      -0.2800E+08   0.1487E-02
  0.9861       0.9520       0.9821        4.960        4.341       0.1398E-02   0.1728E+06   -518.5      -0.2702E+08   0.1485E-02
  0.9868       0.9540       0.9829        4.975        4.523       0.1299E-02   0.1605E+06   -511.6      -0.2570E+08   0.1483E-02
  0.9875       0.9560       0.9837        4.991        4.986       0.1203E-02   0.1487E+06   -524.6      -0.2409E+08   0.1481E-02
  0.9881       0.9580       0.9845        5.009        5.828       0.1112E-02   0.1375E+06   -563.6      -0.2230E+08   0.1479E-02
  0.9888       0.9600       0.9853        5.030        6.431       0.1028E-02   0.1270E+06   -568.8      -0.2046E+08   0.1477E-02
  0.9894       0.9620       0.9861        5.052        7.042       0.9494E-03   0.1174E+06   -570.4      -0.1869E+08   0.1475E-02
  0.9901       0.9640       0.9869        5.076        7.652       0.8774E-03   0.1085E+06   -569.0      -0.1701E+08   0.1473E-02
  0.9907       0.9660       0.9876        5.102        8.258       0.8115E-03   0.1003E+06   -564.1      -0.1544E+08   0.1470E-02
  0.9914       0.9680       0.9884        5.130        8.856       0.7516E-03   0.9291E+05   -555.5      -0.1398E+08   0.1468E-02
  0.9920       0.9700       0.9892        5.160        9.446       0.6974E-03   0.8620E+05   -543.9      -0.1266E+08   0.1466E-02
  0.9926       0.9720       0.9899        5.192        10.03       0.6484E-03   0.8015E+05   -530.8      -0.1150E+08   0.1464E-02
  0.9932       0.9740       0.9907        5.226        10.61       0.6042E-03   0.7469E+05   -516.9      -0.1048E+08   0.1461E-02
  0.9939       0.9760       0.9915        5.262        11.20       0.5644E-03   0.6976E+05   -502.8      -0.9592E+07   0.1459E-02
  0.9945       0.9780       0.9922        5.300        11.81       0.5283E-03   0.6531E+05   -488.9      -0.8817E+07   0.1457E-02
  0.9951       0.9800       0.9929        5.340        12.44       0.4957E-03   0.6127E+05   -475.3      -0.8147E+07   0.1454E-02
  0.9957       0.9820       0.9937        5.382        13.12       0.4661E-03   0.5761E+05   -461.7      -0.7567E+07   0.1452E-02
  0.9963       0.9840       0.9944        5.427        13.86       0.4392E-03   0.5429E+05   -448.5      -0.7065E+07   0.1449E-02
  0.9969       0.9860       0.9951        5.474        14.69       0.4147E-03   0.5126E+05   -436.0      -0.6626E+07   0.1446E-02
  0.9975       0.9880       0.9959        5.524        15.67       0.3924E-03   0.4850E+05   -424.6      -0.6233E+07   0.1444E-02
  0.9981       0.9900       0.9966        5.577        16.84       0.3719E-03   0.4597E+05   -412.9      -0.5875E+07   0.1441E-02
  0.9987       0.9920       0.9973        5.636        18.31       0.3532E-03   0.4366E+05   -398.3      -0.5527E+07   0.1438E-02
  0.9993       0.9940       0.9980        5.699        20.25       0.3363E-03   0.4157E+05   -378.5      -0.5195E+07   0.1435E-02
  0.9999       0.9960       0.9987        5.771        22.87       0.3212E-03   0.3970E+05   -352.9      -0.4862E+07   0.1431E-02
   1.000       0.9980       0.9993        5.852        266.4       0.3080E-03   0.3807E+05   -3503.      -0.4512E+07   0.1428E-02
   1.000        1.000        1.000        5.941        266.4       0.2958E-03   0.3656E+05   -3503.      -0.4161E+07   0.1424E-02
